! Solar data file for CrIS hiRes 080808 SARTA fast model
!
! Data for 645-1500 cm-1 comes from M.P. Thekaekara, 1973 Solar
! Energy v.14 p.109-127 (supplied to us by Chris Barnet).  The ~80
! cm-1 point spacing data has been interpolated to the IASI
! channel freqs and converted to W/(m2.sr.cm-1).
!
! Data for 1500-2760 cm-1 comes from ATMOS Solar Spectra, and was
! supplied to us by ATMOS Principal Investigator Michael Gunson.
! In particular we used the file "atmos_corrected_solar.mat".
! This data was then directly convolved with IASI SRFs (Gaussian
! 2cm apodization) for each channel to approximate the effective
! solar irradiance.
!
!chan frequency  solar
!----  -------  -------
2212  647.500   15.415
2213  648.125   15.440
2214  648.750   15.466
2215  649.375   15.492
   1  650.000   15.517
   2  650.625   15.543
   3  651.250   15.569
   4  651.875   15.595
   5  652.500   15.621
   6  653.125   15.648
   7  653.750   15.674
   8  654.375   15.700
   9  655.000   15.727
  10  655.625   15.754
  11  656.250   15.781
  12  656.875   15.808
  13  657.500   15.835
  14  658.125   15.863
  15  658.750   15.890
  16  659.375   15.918
  17  660.000   15.945
  18  660.625   15.973
  19  661.250   16.001
  20  661.875   16.029
  21  662.500   16.057
  22  663.125   16.085
  23  663.750   16.114
  24  664.375   16.142
  25  665.000   16.171
  26  665.625   16.200
  27  666.250   16.229
  28  666.875   16.259
  29  667.500   16.288
  30  668.125   16.318
  31  668.750   16.347
  32  669.375   16.377
  33  670.000   16.407
  34  670.625   16.438
  35  671.250   16.468
  36  671.875   16.498
  37  672.500   16.529
  38  673.125   16.559
  39  673.750   16.590
  40  674.375   16.621
  41  675.000   16.652
  42  675.625   16.684
  43  676.250   16.715
  44  676.875   16.746
  45  677.500   16.778
  46  678.125   16.809
  47  678.750   16.841
  48  679.375   16.873
  49  680.000   16.905
  50  680.625   16.938
  51  681.250   16.969
  52  681.875   17.002
  53  682.500   17.034
  54  683.125   17.066
  55  683.750   17.099
  56  684.375   17.132
  57  685.000   17.164
  58  685.625   17.197
  59  686.250   17.230
  60  686.875   17.262
  61  687.500   17.296
  62  688.125   17.328
  63  688.750   17.362
  64  689.375   17.395
  65  690.000   17.429
  66  690.625   17.462
  67  691.250   17.495
  68  691.875   17.529
  69  692.500   17.562
  70  693.125   17.596
  71  693.750   17.629
  72  694.375   17.663
  73  695.000   17.696
  74  695.625   17.730
  75  696.250   17.764
  76  696.875   17.797
  77  697.500   17.831
  78  698.125   17.865
  79  698.750   17.899
  80  699.375   17.933
  81  700.000   17.967
  82  700.625   18.001
  83  701.250   18.034
  84  701.875   18.069
  85  702.500   18.102
  86  703.125   18.136
  87  703.750   18.170
  88  704.375   18.204
  89  705.000   18.238
  90  705.625   18.272
  91  706.250   18.306
  92  706.875   18.340
  93  707.500   18.374
  94  708.125   18.407
  95  708.750   18.442
  96  709.375   18.476
  97  710.000   18.509
  98  710.625   18.543
  99  711.250   18.577
 100  711.875   18.611
 101  712.500   18.645
 102  713.125   18.678
 103  713.750   18.712
 104  714.375   18.745
 105  715.000   18.779
 106  715.625   18.812
 107  716.250   18.846
 108  716.875   18.880
 109  717.500   18.913
 110  718.125   18.947
 111  718.750   18.980
 112  719.375   19.013
 113  720.000   19.046
 114  720.625   19.079
 115  721.250   19.113
 116  721.875   19.146
 117  722.500   19.179
 118  723.125   19.212
 119  723.750   19.245
 120  724.375   19.279
 121  725.000   19.311
 122  725.625   19.345
 123  726.250   19.377
 124  726.875   19.410
 125  727.500   19.444
 126  728.125   19.477
 127  728.750   19.509
 128  729.375   19.543
 129  730.000   19.575
 130  730.625   19.608
 131  731.250   19.641
 132  731.875   19.674
 133  732.500   19.707
 134  733.125   19.739
 135  733.750   19.773
 136  734.375   19.806
 137  735.000   19.838
 138  735.625   19.871
 139  736.250   19.904
 140  736.875   19.937
 141  737.500   19.970
 142  738.125   20.002
 143  738.750   20.036
 144  739.375   20.069
 145  740.000   20.101
 146  740.625   20.134
 147  741.250   20.167
 148  741.875   20.200
 149  742.500   20.233
 150  743.125   20.267
 151  743.750   20.299
 152  744.375   20.332
 153  745.000   20.365
 154  745.625   20.398
 155  746.250   20.431
 156  746.875   20.464
 157  747.500   20.497
 158  748.125   20.530
 159  748.750   20.563
 160  749.375   20.596
 161  750.000   20.630
 162  750.625   20.663
 163  751.250   20.696
 164  751.875   20.730
 165  752.500   20.763
 166  753.125   20.796
 167  753.750   20.829
 168  754.375   20.863
 169  755.000   20.896
 170  755.625   20.929
 171  756.250   20.963
 172  756.875   20.996
 173  757.500   21.030
 174  758.125   21.063
 175  758.750   21.097
 176  759.375   21.131
 177  760.000   21.165
 178  760.625   21.198
 179  761.250   21.232
 180  761.875   21.267
 181  762.500   21.300
 182  763.125   21.334
 183  763.750   21.368
 184  764.375   21.402
 185  765.000   21.437
 186  765.625   21.471
 187  766.250   21.505
 188  766.875   21.540
 189  767.500   21.574
 190  768.125   21.608
 191  768.750   21.643
 192  769.375   21.678
 193  770.000   21.712
 194  770.625   21.747
 195  771.250   21.782
 196  771.875   21.817
 197  772.500   21.852
 198  773.125   21.886
 199  773.750   21.921
 200  774.375   21.956
 201  775.000   21.992
 202  775.625   22.027
 203  776.250   22.062
 204  776.875   22.098
 205  777.500   22.133
 206  778.125   22.168
 207  778.750   22.204
 208  779.375   22.239
 209  780.000   22.275
 210  780.625   22.311
 211  781.250   22.346
 212  781.875   22.383
 213  782.500   22.418
 214  783.125   22.454
 215  783.750   22.490
 216  784.375   22.526
 217  785.000   22.562
 218  785.625   22.598
 219  786.250   22.634
 220  786.875   22.671
 221  787.500   22.707
 222  788.125   22.743
 223  788.750   22.779
 224  789.375   22.816
 225  790.000   22.852
 226  790.625   22.889
 227  791.250   22.925
 228  791.875   22.962
 229  792.500   22.999
 230  793.125   23.035
 231  793.750   23.072
 232  794.375   23.109
 233  795.000   23.146
 234  795.625   23.183
 235  796.250   23.219
 236  796.875   23.256
 237  797.500   23.294
 238  798.125   23.331
 239  798.750   23.368
 240  799.375   23.404
 241  800.000   23.442
 242  800.625   23.480
 243  801.250   23.516
 244  801.875   23.553
 245  802.500   23.591
 246  803.125   23.628
 247  803.750   23.666
 248  804.375   23.703
 249  805.000   23.741
 250  805.625   23.779
 251  806.250   23.816
 252  806.875   23.854
 253  807.500   23.891
 254  808.125   23.928
 255  808.750   23.966
 256  809.375   24.003
 257  810.000   24.042
 258  810.625   24.079
 259  811.250   24.117
 260  811.875   24.155
 261  812.500   24.193
 262  813.125   24.230
 263  813.750   24.269
 264  814.375   24.306
 265  815.000   24.345
 266  815.625   24.383
 267  816.250   24.420
 268  816.875   24.459
 269  817.500   24.497
 270  818.125   24.535
 271  818.750   24.573
 272  819.375   24.611
 273  820.000   24.649
 274  820.625   24.688
 275  821.250   24.726
 276  821.875   24.764
 277  822.500   24.802
 278  823.125   24.840
 279  823.750   24.879
 280  824.375   24.917
 281  825.000   24.955
 282  825.625   24.994
 283  826.250   25.032
 284  826.875   25.070
 285  827.500   25.109
 286  828.125   25.148
 287  828.750   25.186
 288  829.375   25.224
 289  830.000   25.263
 290  830.625   25.302
 291  831.250   25.340
 292  831.875   25.378
 293  832.500   25.417
 294  833.125   25.456
 295  833.750   25.494
 296  834.375   25.532
 297  835.000   25.571
 298  835.625   25.610
 299  836.250   25.648
 300  836.875   25.687
 301  837.500   25.725
 302  838.125   25.764
 303  838.750   25.803
 304  839.375   25.841
 305  840.000   25.880
 306  840.625   25.919
 307  841.250   25.957
 308  841.875   25.996
 309  842.500   26.035
 310  843.125   26.073
 311  843.750   26.112
 312  844.375   26.151
 313  845.000   26.190
 314  845.625   26.229
 315  846.250   26.268
 316  846.875   26.306
 317  847.500   26.346
 318  848.125   26.384
 319  848.750   26.423
 320  849.375   26.462
 321  850.000   26.501
 322  850.625   26.540
 323  851.250   26.579
 324  851.875   26.618
 325  852.500   26.657
 326  853.125   26.697
 327  853.750   26.735
 328  854.375   26.774
 329  855.000   26.814
 330  855.625   26.852
 331  856.250   26.892
 332  856.875   26.931
 333  857.500   26.970
 334  858.125   27.009
 335  858.750   27.049
 336  859.375   27.088
 337  860.000   27.127
 338  860.625   27.167
 339  861.250   27.206
 340  861.875   27.245
 341  862.500   27.285
 342  863.125   27.325
 343  863.750   27.364
 344  864.375   27.403
 345  865.000   27.443
 346  865.625   27.483
 347  866.250   27.522
 348  866.875   27.562
 349  867.500   27.601
 350  868.125   27.641
 351  868.750   27.680
 352  869.375   27.720
 353  870.000   27.760
 354  870.625   27.800
 355  871.250   27.840
 356  871.875   27.879
 357  872.500   27.919
 358  873.125   27.959
 359  873.750   27.999
 360  874.375   28.039
 361  875.000   28.079
 362  875.625   28.119
 363  876.250   28.159
 364  876.875   28.199
 365  877.500   28.239
 366  878.125   28.279
 367  878.750   28.320
 368  879.375   28.360
 369  880.000   28.400
 370  880.625   28.440
 371  881.250   28.481
 372  881.875   28.521
 373  882.500   28.562
 374  883.125   28.602
 375  883.750   28.642
 376  884.375   28.683
 377  885.000   28.724
 378  885.625   28.764
 379  886.250   28.805
 380  886.875   28.846
 381  887.500   28.886
 382  888.125   28.927
 383  888.750   28.967
 384  889.375   29.008
 385  890.000   29.049
 386  890.625   29.090
 387  891.250   29.131
 388  891.875   29.172
 389  892.500   29.213
 390  893.125   29.254
 391  893.750   29.295
 392  894.375   29.336
 393  895.000   29.377
 394  895.625   29.419
 395  896.250   29.460
 396  896.875   29.501
 397  897.500   29.543
 398  898.125   29.584
 399  898.750   29.625
 400  899.375   29.666
 401  900.000   29.708
 402  900.625   29.750
 403  901.250   29.791
 404  901.875   29.833
 405  902.500   29.875
 406  903.125   29.916
 407  903.750   29.958
 408  904.375   30.001
 409  905.000   30.042
 410  905.625   30.084
 411  906.250   30.126
 412  906.875   30.167
 413  907.500   30.210
 414  908.125   30.252
 415  908.750   30.294
 416  909.375   30.337
 417  910.000   30.379
 418  910.625   30.421
 419  911.250   30.463
 420  911.875   30.505
 421  912.500   30.548
 422  913.125   30.590
 423  913.750   30.633
 424  914.375   30.675
 425  915.000   30.718
 426  915.625   30.761
 427  916.250   30.804
 428  916.875   30.846
 429  917.500   30.890
 430  918.125   30.932
 431  918.750   30.975
 432  919.375   31.018
 433  920.000   31.061
 434  920.625   31.105
 435  921.250   31.147
 436  921.875   31.191
 437  922.500   31.234
 438  923.125   31.276
 439  923.750   31.320
 440  924.375   31.364
 441  925.000   31.407
 442  925.625   31.450
 443  926.250   31.494
 444  926.875   31.537
 445  927.500   31.581
 446  928.125   31.624
 447  928.750   31.668
 448  929.375   31.712
 449  930.000   31.755
 450  930.625   31.798
 451  931.250   31.842
 452  931.875   31.886
 453  932.500   31.930
 454  933.125   31.974
 455  933.750   32.018
 456  934.375   32.062
 457  935.000   32.106
 458  935.625   32.150
 459  936.250   32.194
 460  936.875   32.238
 461  937.500   32.282
 462  938.125   32.326
 463  938.750   32.371
 464  939.375   32.415
 465  940.000   32.459
 466  940.625   32.504
 467  941.250   32.548
 468  941.875   32.592
 469  942.500   32.637
 470  943.125   32.681
 471  943.750   32.726
 472  944.375   32.770
 473  945.000   32.815
 474  945.625   32.859
 475  946.250   32.904
 476  946.875   32.949
 477  947.500   32.994
 478  948.125   33.038
 479  948.750   33.083
 480  949.375   33.128
 481  950.000   33.173
 482  950.625   33.218
 483  951.250   33.263
 484  951.875   33.308
 485  952.500   33.353
 486  953.125   33.398
 487  953.750   33.443
 488  954.375   33.488
 489  955.000   33.533
 490  955.625   33.578
 491  956.250   33.623
 492  956.875   33.668
 493  957.500   33.714
 494  958.125   33.759
 495  958.750   33.804
 496  959.375   33.850
 497  960.000   33.895
 498  960.625   33.940
 499  961.250   33.985
 500  961.875   34.031
 501  962.500   34.077
 502  963.125   34.122
 503  963.750   34.167
 504  964.375   34.213
 505  965.000   34.259
 506  965.625   34.304
 507  966.250   34.350
 508  966.875   34.395
 509  967.500   34.441
 510  968.125   34.487
 511  968.750   34.532
 512  969.375   34.578
 513  970.000   34.624
 514  970.625   34.670
 515  971.250   34.716
 516  971.875   34.761
 517  972.500   34.807
 518  973.125   34.853
 519  973.750   34.899
 520  974.375   34.945
 521  975.000   34.991
 522  975.625   35.037
 523  976.250   35.083
 524  976.875   35.129
 525  977.500   35.175
 526  978.125   35.221
 527  978.750   35.267
 528  979.375   35.314
 529  980.000   35.360
 530  980.625   35.406
 531  981.250   35.452
 532  981.875   35.498
 533  982.500   35.544
 534  983.125   35.591
 535  983.750   35.637
 536  984.375   35.683
 537  985.000   35.729
 538  985.625   35.775
 539  986.250   35.822
 540  986.875   35.868
 541  987.500   35.915
 542  988.125   35.961
 543  988.750   36.007
 544  989.375   36.054
 545  990.000   36.100
 546  990.625   36.147
 547  991.250   36.193
 548  991.875   36.239
 549  992.500   36.286
 550  993.125   36.332
 551  993.750   36.379
 552  994.375   36.425
 553  995.000   36.472
 554  995.625   36.519
 555  996.250   36.565
 556  996.875   36.612
 557  997.500   36.659
 558  998.125   36.706
 559  998.750   36.752
 560  999.375   36.799
 561 1000.000   36.845
 562 1000.625   36.892
 563 1001.250   36.939
 564 1001.875   36.986
 565 1002.500   37.032
 566 1003.125   37.079
 567 1003.750   37.126
 568 1004.375   37.172
 569 1005.000   37.219
 570 1005.625   37.266
 571 1006.250   37.313
 572 1006.875   37.359
 573 1007.500   37.406
 574 1008.125   37.454
 575 1008.750   37.500
 576 1009.375   37.546
 577 1010.000   37.594
 578 1010.625   37.641
 579 1011.250   37.688
 580 1011.875   37.734
 581 1012.500   37.782
 582 1013.125   37.829
 583 1013.750   37.875
 584 1014.375   37.922
 585 1015.000   37.969
 586 1015.625   38.017
 587 1016.250   38.063
 588 1016.875   38.111
 589 1017.500   38.157
 590 1018.125   38.204
 591 1018.750   38.251
 592 1019.375   38.299
 593 1020.000   38.346
 594 1020.625   38.392
 595 1021.250   38.440
 596 1021.875   38.486
 597 1022.500   38.534
 598 1023.125   38.582
 599 1023.750   38.628
 600 1024.375   38.675
 601 1025.000   38.723
 602 1025.625   38.770
 603 1026.250   38.817
 604 1026.875   38.864
 605 1027.500   38.912
 606 1028.125   38.959
 607 1028.750   39.006
 608 1029.375   39.053
 609 1030.000   39.101
 610 1030.625   39.148
 611 1031.250   39.195
 612 1031.875   39.242
 613 1032.500   39.290
 614 1033.125   39.338
 615 1033.750   39.385
 616 1034.375   39.433
 617 1035.000   39.480
 618 1035.625   39.528
 619 1036.250   39.575
 620 1036.875   39.623
 621 1037.500   39.670
 622 1038.125   39.717
 623 1038.750   39.764
 624 1039.375   39.812
 625 1040.000   39.860
 626 1040.625   39.907
 627 1041.250   39.955
 628 1041.875   40.002
 629 1042.500   40.050
 630 1043.125   40.097
 631 1043.750   40.145
 632 1044.375   40.192
 633 1045.000   40.240
 634 1045.625   40.288
 635 1046.250   40.336
 636 1046.875   40.383
 637 1047.500   40.431
 638 1048.125   40.478
 639 1048.750   40.526
 640 1049.375   40.575
 641 1050.000   40.622
 642 1050.625   40.669
 643 1051.250   40.717
 644 1051.875   40.766
 645 1052.500   40.813
 646 1053.125   40.861
 647 1053.750   40.909
 648 1054.375   40.957
 649 1055.000   41.005
 650 1055.625   41.052
 651 1056.250   41.100
 652 1056.875   41.148
 653 1057.500   41.196
 654 1058.125   41.245
 655 1058.750   41.292
 656 1059.375   41.340
 657 1060.000   41.388
 658 1060.625   41.436
 659 1061.250   41.484
 660 1061.875   41.532
 661 1062.500   41.580
 662 1063.125   41.629
 663 1063.750   41.676
 664 1064.375   41.725
 665 1065.000   41.773
 666 1065.625   41.820
 667 1066.250   41.869
 668 1066.875   41.917
 669 1067.500   41.965
 670 1068.125   42.014
 671 1068.750   42.061
 672 1069.375   42.109
 673 1070.000   42.158
 674 1070.625   42.207
 675 1071.250   42.254
 676 1071.875   42.302
 677 1072.500   42.351
 678 1073.125   42.400
 679 1073.750   42.448
 680 1074.375   42.496
 681 1075.000   42.544
 682 1075.625   42.593
 683 1076.250   42.641
 684 1076.875   42.689
 685 1077.500   42.738
 686 1078.125   42.787
 687 1078.750   42.835
 688 1079.375   42.883
 689 1080.000   42.932
 690 1080.625   42.980
 691 1081.250   43.029
 692 1081.875   43.077
 693 1082.500   43.126
 694 1083.125   43.174
 695 1083.750   43.223
 696 1084.375   43.272
 697 1085.000   43.320
 698 1085.625   43.368
 699 1086.250   43.417
 700 1086.875   43.466
 701 1087.500   43.515
 702 1088.125   43.564
 703 1088.750   43.612
 704 1089.375   43.661
 705 1090.000   43.710
 706 1090.625   43.758
 707 1091.250   43.807
 708 1091.875   43.856
 709 1092.500   43.905
 710 1093.125   43.954
 711 1093.750   44.002
 712 1094.375   44.051
 713 1095.000   44.100
2216 1095.625   44.148
2217 1096.250   44.197
2218 1096.875   44.246
2219 1097.500   44.295
2220 1207.500   53.120
2221 1208.125   53.170
2222 1208.750   53.221
2223 1209.375   53.273
 714 1210.000   53.324
 715 1210.625   53.374
 716 1211.250   53.425
 717 1211.875   53.477
 718 1212.500   53.528
 719 1213.125   53.578
 720 1213.750   53.629
 721 1214.375   53.681
 722 1215.000   53.732
 723 1215.625   53.783
 724 1216.250   53.834
 725 1216.875   53.885
 726 1217.500   53.936
 727 1218.125   53.987
 728 1218.750   54.038
 729 1219.375   54.089
 730 1220.000   54.140
 731 1220.625   54.191
 732 1221.250   54.242
 733 1221.875   54.294
 734 1222.500   54.345
 735 1223.125   54.395
 736 1223.750   54.447
 737 1224.375   54.498
 738 1225.000   54.549
 739 1225.625   54.600
 740 1226.250   54.651
 741 1226.875   54.702
 742 1227.500   54.753
 743 1228.125   54.804
 744 1228.750   54.855
 745 1229.375   54.907
 746 1230.000   54.958
 747 1230.625   55.009
 748 1231.250   55.060
 749 1231.875   55.111
 750 1232.500   55.162
 751 1233.125   55.213
 752 1233.750   55.264
 753 1234.375   55.316
 754 1235.000   55.367
 755 1235.625   55.418
 756 1236.250   55.469
 757 1236.875   55.520
 758 1237.500   55.572
 759 1238.125   55.623
 760 1238.750   55.674
 761 1239.375   55.725
 762 1240.000   55.776
 763 1240.625   55.827
 764 1241.250   55.878
 765 1241.875   55.929
 766 1242.500   55.981
 767 1243.125   56.032
 768 1243.750   56.083
 769 1244.375   56.135
 770 1245.000   56.186
 771 1245.625   56.236
 772 1246.250   56.288
 773 1246.875   56.339
 774 1247.500   56.390
 775 1248.125   56.441
 776 1248.750   56.492
 777 1249.375   56.544
 778 1250.000   56.595
 779 1250.625   56.646
 780 1251.250   56.697
 781 1251.875   56.748
 782 1252.500   56.800
 783 1253.125   56.851
 784 1253.750   56.902
 785 1254.375   56.953
 786 1255.000   57.004
 787 1255.625   57.056
 788 1256.250   57.106
 789 1256.875   57.157
 790 1257.500   57.209
 791 1258.125   57.260
 792 1258.750   57.311
 793 1259.375   57.362
 794 1260.000   57.414
 795 1260.625   57.465
 796 1261.250   57.516
 797 1261.875   57.568
 798 1262.500   57.619
 799 1263.125   57.670
 800 1263.750   57.721
 801 1264.375   57.772
 802 1265.000   57.823
 803 1265.625   57.874
 804 1266.250   57.926
 805 1266.875   57.977
 806 1267.500   58.028
 807 1268.125   58.079
 808 1268.750   58.130
 809 1269.375   58.181
 810 1270.000   58.233
 811 1270.625   58.284
 812 1271.250   58.335
 813 1271.875   58.386
 814 1272.500   58.438
 815 1273.125   58.489
 816 1273.750   58.540
 817 1274.375   58.591
 818 1275.000   58.643
 819 1275.625   58.694
 820 1276.250   58.745
 821 1276.875   58.797
 822 1277.500   58.848
 823 1278.125   58.899
 824 1278.750   58.950
 825 1279.375   59.002
 826 1280.000   59.053
 827 1280.625   59.104
